Data from HR4C34221__4__21-28-08-505.txt Node

Date: Fri Apr 11 21:28:08 MSK 2025
User: 123
Spectrometer: HR4C3422
Trigger mode: 4
Integration Time (sec): 6,000000E-2
Scans to average: 10
Electric dark correction enabled: true
Nonlinearity correction enabled: false
Boxcar width: 0
XAxis mode: Wavelengths
Number of Pixels in Spectrum: 3648
>>>>>Begin Spectral Data<<<<<
195,326	-60,92
195,597	-60,92
195,868	-60,92
196,139	-23,72
196,409	-1,82
196,68	-5,02
196,951	-0,82
197,221	-4,42
197,492	2,18
197,762	1,18
198,033	0,28
198,304	1,48
198,574	-2,12
198,845	3,98
199,116	0,18
199,386	1,68
199,657	-7,82
199,927	9,18
200,198	4,08
200,468	-0,22
200,739	2,68
201,009	-0,32
201,28	1,68
201,551	2,28
201,821	1,58
202,092	3,78
202,362	4,98
202,633	-2,32
202,903	0,48
203,174	-2,72
203,444	-0,02
203,714	0,58
203,985	3,88
204,255	5,88
204,526	44,48
204,796	-2,42
205,067	3,88
205,337	4,28
205,607	6,58
205,878	31,68
206,148	10,98
206,419	1,08
206,689	1,88
206,959	4,88
207,23	1,38
207,5	3,28
207,77	9,28
208,041	0,38
208,311	5,38
208,581	5,38
208,852	2,78
209,122	1,58
209,392	-1,62
209,663	-5,92
209,933	-2,42
210,203	2,78
210,473	3,18
210,744	1,88
211,014	7,88
211,284	1,68
211,554	3,08
211,825	5,68
212,095	0,38
212,365	-1,62
212,635	2,78
212,905	1,28
213,176	8,18
213,446	15,38
213,716	1,38
213,986	3,78
214,256	3,48
214,526	2,98
214,797	2,78
215,067	6,68
215,337	7,58
215,607	2,08
215,877	1,18
216,147	1,08
216,417	2,18
216,687	3,08
216,957	8,28
217,227	5,58
217,497	2,08
217,767	5,88
218,038	10,78
218,308	2,28
218,578	3,58
218,848	5,08
219,118	-0,32
219,388	5,98
219,658	1,08
219,928	8,78
220,198	2,48
220,468	4,48
220,737	1,58
221,007	4,48
221,277	1,68
221,547	4,88
221,817	-0,32
222,087	-1,32
222,357	8,18
222,627	1,48
222,897	7,38
223,167	-0,52
223,437	-1,12
223,707	4,98
223,976	10,88
224,246	1,48
224,516	1,48
224,786	2,08
225,056	0,98
225,326	1,78
225,595	2,58
225,865	1,18
226,135	0,68
226,405	0,48
226,675	3,58
226,944	10,18
227,214	1,78
227,484	-1,42
227,754	-0,92
228,023	1,08
228,293	-0,62
228,563	6,08
228,833	5,38
229,102	6,48
229,372	2,18
229,642	3,58
229,911	7,88
230,181	4,78
230,451	4,68
230,72	3,68
230,99	1,38
231,26	0,98
231,529	1,78
231,799	7,08
232,069	0,88
232,338	5,08
232,608	9,68
232,877	2,18
233,147	0,98
233,417	2,88
233,686	5,28
233,956	1,18
234,225	-2,42
234,495	-5,62
234,764	2,38
235,034	-0,02
235,304	-4,22
235,573	38,98
235,843	8,48
236,112	5,68
236,382	3,18
236,651	4,18
236,921	6,98
237,19	1,38
237,46	2,28
237,729	-0,62
237,998	8,18
238,268	3,58
238,537	9,78
238,807	11,28
239,076	0,98
239,346	0,28
239,615	2,78
239,884	1,38
240,154	1,38
240,423	-1,32
240,693	-2,62
240,962	1,28
241,231	2,58
241,501	8,68
241,77	0,68
242,039	-2,72
242,309	-2,32
242,578	0,28
242,847	1,48
243,116	0,78
243,386	3,78
243,655	5,18
243,924	7,18
244,194	2,28
244,463	7,28
244,732	7,38
245,001	1,28
245,271	37,68
245,54	7,88
245,809	-1,22
246,078	-1,42
246,347	-0,32
246,617	0,98
246,886	3,08
247,155	1,38
247,424	1,48
247,693	1,28
247,963	2,18
248,232	4,98
248,501	7,58
248,77	0,88
249,039	5,48
249,308	-1,02
249,577	4,78
249,846	3,38
250,115	1,98
250,385	7,38
250,654	3,58
250,923	8,98
251,192	-0,32
251,461	0,78
251,73	1,88
251,999	2,08
252,268	6,98
252,537	4,38
252,806	-1,52
253,075	2,18
253,344	5,08
253,613	10,18
253,882	-1,72
254,151	5,68
254,42	3,18
254,689	0,38
254,958	-3,62
255,227	-0,92
255,496	3,88
255,765	2,18
256,033	-0,82
256,302	7,58
256,571	3,58
256,84	3,18
257,109	-0,72
257,378	-0,32
257,647	2,18
257,916	0,78
258,184	4,18
258,453	-1,72
258,722	2,88
258,991	-2,42
259,26	3,48
259,529	1,88
259,797	2,38
260,066	2,68
260,335	2,08
260,604	4,48
260,873	9,08
261,141	3,38
261,41	-1,32
261,679	2,78
261,948	5,18
262,216	-3,42
262,485	6,48
262,754	1,48
263,022	7,78
263,291	8,28
263,56	-0,22
263,829	2,18
264,097	1,68
264,366	2,48
264,635	1,98
264,903	0,88
265,172	0,58
265,44	0,48
265,709	5,58
265,978	3,88
266,246	5,18
266,515	4,48
266,784	2,58
267,052	1,68
267,321	-0,82
267,589	50,88
267,858	5,48
268,126	0,18
268,395	4,28
268,663	6,48
268,932	6,58
269,201	2,38
269,469	5,18
269,738	1,38
270,006	2,78
270,275	5,48
270,543	-1,72
270,811	2,58
271,08	3,48
271,348	7,78
271,617	7,88
271,885	1,38
272,154	-3,42
272,422	3,58
272,691	4,28
272,959	14,88
273,227	0,98
273,496	1,38
273,764	-0,52
274,033	10,38
274,301	3,98
274,569	6,28
274,838	5,38
275,106	3,18
275,374	6,58
275,643	10,08
275,911	4,48
276,179	2,98
276,448	5,18
276,716	6,28
276,984	0,78
277,252	5,48
277,521	-0,82
277,789	4,68
278,057	0,58
278,325	-1,62
278,594	10,48
278,862	9,88
279,13	2,78
279,398	5,18
279,667	-1,12
279,935	3,08
280,203	5,88
280,471	8,68
280,739	4,78
281,008	3,98
281,276	-1,72
281,544	4,88
281,812	-2,22
282,08	1,18
282,348	8,78
282,616	8,28
282,884	3,38
283,153	5,28
283,421	8,48
283,689	6,18
283,957	-1,42
284,225	5,18
284,493	7,58
284,761	6,38
285,029	3,28
285,297	-0,52
285,565	2,38
285,833	1,08
286,101	-0,02
286,369	-6,22
286,637	2,38
286,905	-4,22
287,173	-0,02
287,441	1,58
287,709	6,58
287,977	10,48
288,245	-6,92
288,513	5,48
288,781	-1,92
289,049	4,68
289,317	3,08
289,585	0,78
289,853	7,28
290,12	5,88
290,388	-3,12
290,656	0,68
290,924	0,88
291,192	-0,62
291,46	1,38
291,728	4,78
291,996	3,78
292,263	7,68
292,531	3,08
292,799	-0,72
293,067	4,28
293,335	6,58
293,602	-1,72
293,87	3,78
294,138	5,58
294,406	1,98
294,673	1,78
294,941	1,28
295,209	-0,22
295,477	4,58
295,744	2,98
296,012	7,18
296,28	7,98
296,548	-2,82
296,815	-2,82
297,083	4,88
297,351	7,38
297,618	3,98
297,886	4,38
298,154	6,38
298,421	0,48
298,689	0,78
298,956	2,98
299,224	4,68
299,492	-1,22
299,759	1,68
300,027	6,58
300,294	5,48
300,562	3,48
300,83	6,48
301,097	0,48
301,365	-2,92
301,632	0,68
301,9	3,68
302,167	4,08
302,435	7,08
302,702	11,98
302,97	1,88
303,237	4,58
303,505	9,48
303,772	8,08
304,04	0,88
304,307	-0,92
304,575	8,78
304,842	2,28
305,11	10,08
305,377	4,48
305,645	5,48
305,912	-1,82
306,179	3,78
306,447	-0,72
306,714	4,08
306,982	2,58
307,249	3,48
307,516	1,28
307,784	6,98
308,051	2,08
308,318	9,08
308,586	4,98
308,853	-0,82
309,12	1,18
309,388	6,48
309,655	7,48
309,922	2,98
310,19	-2,62
310,457	6,88
310,724	6,08
310,991	5,38
311,259	6,88
311,526	5,68
311,793	2,68
312,06	2,58
312,328	8,48
312,595	3,48
312,862	0,78
313,129	6,98
313,396	2,58
313,664	2,78
313,931	3,78
314,198	2,18
314,465	6,88
314,732	3,58
314,999	3,98
315,266	5,98
315,534	7,68
315,801	2,48
316,068	5,38
316,335	4,18
316,602	4,08
316,869	4,38
317,136	6,18
317,403	2,08
317,67	7,48
317,937	9,08
318,204	0,18
318,471	9,38
318,738	9,78
319,005	8,98
319,272	2,08
319,539	4,68
319,806	7,28
320,073	4,78
320,34	3,98
320,607	5,98
320,874	11,38
321,141	5,48
321,408	15,68
321,675	-0,62
321,942	6,28
322,209	6,08
322,476	-0,32
322,743	6,78
323,01	10,48
323,277	2,08
323,544	10,18
323,81	6,38
324,077	7,08
324,344	4,58
324,611	10,18
324,878	8,28
325,145	2,98
325,412	6,28
325,678	3,38
325,945	5,58
326,212	2,58
326,479	9,38
326,746	7,68
327,012	2,98
327,279	-0,92
327,546	6,68
327,813	2,38
328,079	4,18
328,346	1,98
328,613	9,28
328,88	5,68
329,146	12,38
329,413	7,48
329,68	2,18
329,946	5,78
330,213	4,18
330,48	5,58
330,746	9,88
331,013	10,88
331,28	2,58
331,546	3,68
331,813	-0,82
332,08	1,08
332,346	4,28
332,613	6,68
332,879	7,28
333,146	11,88
333,413	2,18
333,679	2,08
333,946	1,48
334,212	2,78
334,479	3,88
334,745	5,88
335,012	4,08
335,278	0,28
335,545	8,08
335,811	4,38
336,078	11,58
336,344	2,88
336,611	3,08
336,877	2,88
337,144	3,18
337,41	2,08
337,677	13,58
337,943	9,48
338,21	10,08
338,476	6,58
338,742	11,08
339,009	8,18
339,275	4,88
339,542	6,28
339,808	7,38
340,074	10,08
340,341	2,68
340,607	6,88
340,873	5,08
341,14	4,18
341,406	9,88
341,672	7,88
341,939	-0,62
342,205	8,28
342,471	8,08
342,738	4,48
343,004	12,08
343,27	4,28
343,537	18,48
343,803	8,08
344,069	6,28
344,335	1,18
344,602	4,48
344,868	3,68
345,134	1,88
345,4	7,58
345,666	10,28
345,933	10,38
346,199	4,48
346,465	9,28
346,731	12,58
346,997	2,48
347,263	6,78
347,53	11,08
347,796	7,18
348,062	4,58
348,328	11,68
348,594	7,98
348,86	5,28
349,126	6,38
349,392	9,08
349,659	7,08
349,925	6,28
350,191	4,48
350,457	9,28
350,723	8,98
350,989	9,88
351,255	8,28
351,521	12,98
351,787	6,08
352,053	5,08
352,319	10,18
352,585	11,88
352,851	7,08
353,117	6,98
353,383	7,28
353,649	1,38
353,915	8,28
354,181	14,38
354,447	11,08
354,713	8,28
354,978	10,68
355,244	10,78
355,51	3,28
355,776	8,08
356,042	5,08
356,308	9,88
356,574	11,18
356,84	6,88
357,106	4,98
357,371	7,48
357,637	11,48
357,903	10,98
358,169	8,28
358,435	8,48
358,701	0,98
358,966	8,08
359,232	13,38
359,498	9,88
359,764	10,28
360,029	9,58
360,295	10,08
360,561	2,78
360,827	4,98
361,092	13,28
361,358	11,58
361,624	6,38
361,89	-0,42
362,155	6,08
362,421	8,58
362,687	10,58
362,952	12,28
363,218	15,78
363,484	10,78
363,749	10,28
364,015	13,18
364,281	15,38
364,546	10,18
364,812	12,48
365,077	9,88
365,343	10,78
365,609	6,38
365,874	8,18
366,14	7,48
366,405	6,38
366,671	8,98
366,936	14,38
367,202	11,88
367,467	17,98
367,733	9,98
367,999	15,68
368,264	10,88
368,53	7,48
368,795	7,38
369,061	8,78
369,326	9,18
369,591	8,08
369,857	9,08
370,122	9,18
370,388	3,88
370,653	9,78
370,919	5,78
371,184	8,98
371,45	12,28
371,715	14,88
371,98	16,78
372,246	10,88
372,511	11,38
372,776	6,68
373,042	14,68
373,307	8,08
373,573	7,98
373,838	6,38
374,103	12,48
374,369	13,58
374,634	7,68
374,899	15,18
375,164	8,68
375,43	14,78
375,695	16,68
375,96	12,78
376,226	13,18
376,491	11,58
376,756	9,48
377,021	11,58
377,286	12,58
377,552	10,88
377,817	12,78
378,082	11,68
378,347	11,88
378,613	14,58
378,878	19,28
379,143	9,08
379,408	12,88
379,673	9,58
379,938	12,68
380,203	13,18
380,469	15,58
380,734	22,48
380,999	12,98
381,264	13,78
381,529	10,88
381,794	11,88
382,059	15,28
382,324	11,38
382,589	8,08
382,854	10,68
383,119	11,38
383,385	10,08
383,65	3,98
383,915	12,78
384,18	7,18
384,445	11,58
384,71	17,68
384,975	15,78
385,24	14,28
385,505	11,08
385,77	15,18
386,034	13,98
386,299	11,98
386,564	13,98
386,829	18,68
387,094	18,18
387,359	8,18
387,624	13,78
387,889	17,78
388,154	11,78
388,419	14,38
388,684	16,78
388,949	13,18
389,213	7,58
389,478	8,08
389,743	15,28
390,008	14,08
390,273	18,08
390,538	10,48
390,802	13,98
391,067	14,08
391,332	9,48
391,597	14,98
391,862	17,68
392,126	20,38
392,391	20,58
392,656	9,38
392,921	7,98
393,185	8,18
393,45	19,98
393,715	14,78
393,979	17,78
394,244	7,78
394,509	17,08
394,774	23,38
395,038	21,98
395,303	10,48
395,568	18,48
395,832	12,28
396,097	19,78
396,361	14,18
396,626	13,38
396,891	14,98
397,155	14,38
397,42	18,48
397,685	14,08
397,949	11,28
398,214	18,28
398,478	12,78
398,743	13,88
399,007	22,28
399,272	15,38
399,536	18,18
399,801	16,48
400,066	13,88
400,33	18,38
400,595	20,38
400,859	17,68
401,124	18,78
401,388	21,98
401,652	15,88
401,917	30,88
402,181	11,58
402,446	18,48
402,71	14,98
402,975	17,88
403,239	19,28
403,504	19,58
403,768	18,88
404,032	19,08
404,297	21,98
404,561	19,98
404,826	21,98
405,09	28,18
405,354	19,78
405,619	26,58
405,883	22,48
406,147	24,38
406,412	21,88
406,676	23,98
406,94	32,78
407,205	25,18
407,469	28,18
407,733	23,68
407,997	27,88
408,262	26,88
408,526	30,08
408,79	29,48
409,054	19,08
409,319	24,98
409,583	22,08
409,847	22,48
410,111	28,08
410,375	32,08
410,64	28,88
410,904	31,98
411,168	27,08
411,432	31,98
411,696	27,78
411,96	31,58
412,225	39,48
412,489	39,78
412,753	34,38
413,017	34,78
413,281	39,58
413,545	46,68
413,809	42,58
414,073	47,38
414,337	45,88
414,602	47,18
414,866	47,38
415,13	51,28
415,394	51,58
415,658	57,28
415,922	61,58
416,186	59,88
416,45	61,88
416,714	67,08
416,978	64,68
417,242	69,98
417,506	71,28
417,77	79,58
418,034	84,18
418,298	82,08
418,562	94,18
418,825	91,58
419,089	101,88
419,353	99,98
419,617	111,28
419,881	112,48
420,145	117,08
420,409	129,68
420,673	134,18
420,937	133,28
421,2	141,18
421,464	158,98
421,728	163,08
421,992	158,58
422,256	176,28
422,52	183,38
422,783	189,88
423,047	200,78
423,311	214,88
423,575	224,58
423,839	235,58
424,102	239,98
424,366	258,38
424,63	277,88
424,894	288,78
425,157	307,78
425,421	322,78
425,685	335,28
425,949	347,48
426,212	367,38
426,476	374,78
426,74	395,78
427,003	425,98
427,267	439,58
427,531	464,08
427,794	493,38
428,058	505,48
428,322	516,08
428,585	564,38
428,849	572,98
429,112	606,98
429,376	647,58
429,64	663,58
429,903	696,48
430,167	722,78
430,43	766,18
430,694	797,88
430,957	824,88
431,221	861,78
431,485	896,78
431,748	924,88
432,012	975,98
432,275	1003,68
432,539	1052,28
432,802	1104,38
433,066	1143,68
433,329	1170,78
433,593	1255,28
433,856	1271,28
434,119	1330,38
434,383	1393,38
434,646	1409,78
434,91	1469,48
435,173	1551,38
435,437	1591,78
435,7	1640,28
435,963	1705,98
436,227	1753,58
436,49	1826,58
436,753	1859,48
437,017	1904,18
437,28	2014,38
437,544	2112,48
437,807	2149,08
438,07	2170,08
438,334	2291,48
438,597	2342,28
438,86	2466,08
439,123	2543,68
439,387	2602,18
439,65	2715,38
439,913	2867,58
440,177	2870,48
440,44	2984,78
440,703	3158,78
440,966	3183,18
441,229	3321,88
441,493	3438,08
441,756	3636,28
442,019	3681,28
442,282	3744,88
442,545	3939,68
442,809	4064,68
443,072	4181,18
443,335	4441,08
443,598	4661,78
443,861	4689,38
444,124	4873,78
444,388	5167,18
444,651	5306,98
444,914	5432,88
445,177	5671,68
445,44	5764,48
445,703	5961,08
445,966	6277,58
446,229	6538,98
446,492	6690,08
446,755	7131,78
447,018	7168,18
447,281	7418,28
447,544	7650,78
447,807	7937,88
448,07	8346,58
448,333	8448,18
448,596	8766,78
448,859	9221,28
449,122	9392,28
449,385	9544,98
449,648	10041,78
449,911	10154,08
450,174	10629,98
450,437	10797,78
450,7	10957,18
450,963	11050,18
451,226	11546,58
451,489	11739,58
451,752	12179,78
452,015	12341,08
452,277	12274,68
452,54	12658,38
452,803	12797,88
453,066	12893,78
453,329	13162,38
453,592	13401,08
453,855	13195,48
454,117	13563,38
454,38	13562,68
454,643	13838,88
454,906	13657,68
455,169	13447,38
455,431	13546,78
455,694	13551,48
455,957	13506,98
456,22	13897,38
456,482	13434,98
456,745	13328,18
457,008	13651,28
457,271	13462,18
457,533	13281,08
457,796	13254,68
458,059	13037,38
458,321	12676,38
458,584	12573,48
458,847	12485,58
459,109	11993,58
459,372	12280,08
459,635	11771,88
459,897	11601,08
460,16	11550,18
460,423	11350,48
460,685	10993,58
460,948	10896,38
461,21	10712,48
461,473	10453,78
461,735	10060,68
461,998	9976,08
462,261	9745,88
462,523	9808,98
462,786	9513,78
463,048	9310,58
463,311	9167,98
463,573	8968,58
463,836	8742,18
464,098	8482,08
464,361	8228,98
464,623	8114,88
464,886	8066,88
465,148	8171,98
465,411	8079,68
465,673	8122,28
465,936	7920,48
466,198	7855,28
466,46	7698,88
466,723	7590,88
466,985	7476,28
467,248	7431,08
467,51	7359,38
467,772	7331,28
468,035	7222,08
468,297	7206,58
468,56	7047,68
468,822	7036,38
469,084	6996,88
469,347	6847,68
469,609	6873,78
469,871	6916,68
470,133	6792,28
470,396	6845,68
470,658	6668,88
470,92	6577,48
471,183	6749,28
471,445	6556,18
471,707	6535,38
471,969	6466,78
472,232	6374,38
472,494	6396,98
472,756	6364,68
473,018	6197,48
473,281	6313,18
473,543	6221,58
473,805	6085,68
474,067	6150,88
474,329	5965,38
474,591	5995,28
474,854	5997,58
475,116	5822,88
475,378	5782,68
475,64	5680,38
475,902	5570,18
476,164	5607,48
476,426	5542,58
476,688	5432,58
476,951	5335,68
477,213	5298,98
477,475	5185,48
477,737	5217,38
477,999	5113,78
478,261	5056,68
478,523	4977,78
478,785	4976,38
479,047	4920,48
479,309	4855,58
479,571	4797,78
479,833	4714,48
480,095	4668,18
480,357	4658,58
480,619	4510,88
480,881	4526,18
481,143	4448,48
481,405	4399,88
481,667	4416,98
481,929	4369,98
482,191	4325,48
482,452	4274,88
482,714	4270,48
482,976	4201,38
483,238	4229,88
483,5	4216,58
483,762	4148,68
484,024	4209,28
484,286	4147,28
484,547	4115,68
484,809	4061,08
485,071	4075,28
485,333	4060,68
485,595	4024,98
485,857	3994,88
486,118	3989,88
486,38	3993,48
486,642	3989,88
486,904	3984,68
487,165	3950,18
487,427	3949,18
487,689	3958,08
487,951	3951,58
488,212	3910,28
488,474	3905,48
488,736	3897,28
488,998	3909,88
489,259	3885,48
489,521	3878,88
489,783	3876,58
490,044	3866,08
490,306	3870,08
490,568	3844,38
490,829	3862,38
491,091	3793,18
491,353	3836,38
491,614	3826,18
491,876	3828,08
492,137	3811,68
492,399	3820,48
492,661	3816,28
492,922	3811,88
493,184	3824,28
493,445	3825,68
493,707	3828,28
493,968	3831,98
494,23	3838,98
494,491	3845,78
494,753	3831,88
495,014	3858,18
495,276	3867,38
495,537	3850,08
495,799	3885,48
496,06	3895,38
496,322	3924,48
496,583	3939,78
496,845	3936,48
497,106	3961,18
497,368	3960,58
497,629	3994,68
497,89	4029,18
498,152	4077,88
498,413	4091,18
498,675	4098,58
498,936	4128,48
499,197	4154,38
499,459	4179,28
499,72	4226,88
499,981	4260,28
500,243	4304,68
500,504	4324,68
500,765	4380,78
501,027	4414,38
501,288	4446,98
501,549	4473,78
501,811	4492,78
502,072	4537,88
502,333	4579,18
502,594	4617,08
502,856	4653,58
503,117	4703,18
503,378	4734,88
503,639	4789,68
503,901	4846,28
504,162	4847,48
504,423	4914,68
504,684	4979,68
504,945	5027,98
505,207	5078,08
505,468	5119,58
505,729	5137,78
505,99	5210,08
506,251	5260,58
506,512	5298,78
506,774	5380,88
507,035	5422,68
507,296	5470,28
507,557	5504,28
507,818	5529,38
508,079	5604,78
508,34	5652,88
508,601	5710,78
508,862	5755,28
509,123	5832,98
509,384	5863,48
509,645	5885,08
509,906	5972,78
510,167	6002,48
510,428	6068,38
510,689	6123,88
510,95	6146,88
511,211	6245,28
511,472	6246,38
511,733	6328,58
511,994	6344,68
512,255	6418,68
512,516	6450,28
512,777	6509,18
513,038	6543,78
513,299	6657,68
513,56	6699,38
513,821	6722,48
514,082	6776,38
514,343	6821,18
514,603	6874,38
514,864	6892,28
515,125	6964,08
515,386	6996,28
515,647	7074,28
515,908	7112,58
516,169	7157,98
516,429	7242,88
516,69	7248,28
516,951	7277,98
517,212	7346,28
517,473	7370,98
517,733	7415,18
517,994	7488,48
518,255	7493,08
518,516	7554,98
518,776	7568,98
519,037	7664,88
519,298	7719,88
519,559	7802,28
519,819	7807,48
520,08	7845,98
520,341	7894,78
520,601	7938,18
520,862	7974,08
521,123	7996,98
521,383	8061,18
521,644	8089,38
521,905	8105,78
522,165	8160,78
522,426	8238,28
522,686	8255,38
522,947	8300,28
523,208	8364,98
523,468	8403,08
523,729	8445,98
523,989	8478,28
524,25	8487,68
524,51	8536,18
524,771	8586,58
525,032	8619,78
525,292	8637,68
525,553	8691,28
525,813	8774,48
526,074	8811,08
526,334	8821,18
526,595	8852,58
526,855	8872,28
527,116	8934,98
527,376	8950,68
527,636	8946,98
527,897	9041,48
528,157	9055,28
528,418	9098,18
528,678	9095,98
528,939	9143,28
529,199	9200,98
529,459	9268,48
529,72	9289,28
529,98	9281,58
530,24	9286,38
530,501	9334,08
530,761	9283,98
531,022	9350,28
531,282	9357,28
531,542	9417,68
531,803	9440,48
532,063	9379,48
532,323	9416,48
532,583	9511,48
532,844	9516,28
533,104	9540,98
533,364	9586,38
533,624	9613,58
533,885	9624,88
534,145	9631,48
534,405	9622,28
534,665	9631,38
534,926	9663,58
535,186	9634,68
535,446	9705,68
535,706	9681,08
535,966	9718,38
536,227	9688,38
536,487	9731,18
536,747	9717,48
537,007	9727,08
537,267	9758,18
537,527	9833,28
537,787	9829,08
538,048	9844,08
538,308	9859,48
538,568	9822,88
538,828	9834,78
539,088	9833,18
539,348	9898,28
539,608	9877,48
539,868	9884,28
540,128	9936,38
540,388	9871,88
540,648	9917,18
540,908	9930,58
541,168	9911,78
541,428	9947,18
541,688	9898,98
541,948	9942,28
542,208	9941,18
542,468	9943,88
542,728	9959,88
542,988	9987,88
543,248	9939,98
543,508	9992,48
543,768	9952,48
544,028	10016,08
544,288	9961,68
544,548	10022,58
544,807	9991,28
545,067	9952,28
545,327	9990,68
545,587	9940,98
545,847	9984,58
546,107	9953,98
546,367	9954,38
546,626	9982,18
546,886	9981,98
547,146	9961,68
547,406	9988,88
547,666	9947,68
547,925	10000,08
548,185	9946,58
548,445	9974,98
548,705	9949,58
548,965	9996,98
549,224	9985,08
549,484	9950,98
549,744	9934,58
550,003	9966,38
550,263	9936,68
550,523	9890,98
550,783	9862,88
551,042	9866,48
551,302	9873,98
551,562	9878,78
551,821	9807,78
552,081	9834,08
552,341	9905,38
552,6	9859,18
552,86	9815,68
553,119	9823,28
553,379	9766,98
553,639	9804,28
553,898	9774,38
554,158	9735,98
554,417	9768,68
554,677	9746,98
554,936	9774,98
555,196	9720,78
555,456	9725,98
555,715	9676,08
555,975	9687,78
556,234	9682,68
556,494	9691,78
556,753	9611,68
557,013	9620,58
557,272	9640,98
557,532	9670,28
557,791	9580,78
558,051	9619,08
558,31	9564,78
558,569	9551,38
558,829	9527,68
559,088	9540,98
559,348	9536,28
559,607	9528,68
559,866	9464,78
560,126	9521,38
560,385	9481,58
560,645	9465,88
560,904	9406,28
561,163	9361,28
561,423	9352,68
561,682	9362,98
561,941	9355,48
562,201	9285,58
562,46	9347,88
562,719	9231,58
562,979	9267,28
563,238	9250,68
563,497	9220,38
563,756	9211,98
564,016	9244,58
564,275	9185,08
564,534	9163,48
564,793	9118,68
565,053	9100,08
565,312	9159,68
565,571	9090,28
565,83	9043,68
566,089	9011,88
566,349	8986,58
566,608	8983,88
566,867	8960,78
567,126	8893,28
567,385	8881,38
567,644	8842,28
567,903	8852,28
568,163	8793,48
568,422	8723,58
568,681	8746,88
568,94	8732,48
569,199	8667,48
569,458	8640,68
569,717	8633,28
569,976	8645,58
570,235	8569,58
570,494	8589,48
570,753	8545,88
571,012	8522,58
571,271	8471,18
571,53	8450,08
571,789	8467,98
572,048	8445,18
572,307	8442,98
572,566	8398,18
572,825	8336,98
573,084	8324,48
573,343	8312,68
573,602	8244,78
573,861	8201,88
574,12	8195,68
574,379	8199,68
574,638	8165,88
574,897	8069,08
575,156	8142,58
575,414	8070,48
575,673	8040,78
575,932	8007,28
576,191	7961,18
576,45	7975,98
576,709	7936,08
576,968	7901,38
577,226	7882,38
577,485	7889,88
577,744	7861,78
578,003	7868,78
578,262	7759,18
578,52	7734,08
578,779	7727,98
579,038	7676,58
579,297	7643,08
579,555	7616,68
579,814	7621,58
580,073	7576,98
580,332	7536,88
580,59	7540,78
580,849	7481,38
581,108	7492,78
581,366	7411,98
581,625	7401,18
581,884	7378,38
582,142	7361,08
582,401	7329,48
582,66	7321,88
582,918	7280,58
583,177	7262,78
583,436	7191,08
583,694	7198,68
583,953	7171,38
584,211	7170,78
584,47	7141,78
584,728	7116,38
584,987	7059,18
585,246	7048,08
585,504	6997,88
585,763	6979,38
586,021	6990,38
586,28	6959,58
586,538	6915,48
586,797	6907,58
587,055	6838,18
587,314	6863,18
587,572	6801,68
587,831	6776,58
588,089	6741,68
588,348	6755,58
588,606	6695,28
588,864	6695,78
589,123	6668,78
589,381	6673,98
589,64	6639,38
589,898	6643,88
590,157	6595,18
590,415	6578,78
590,673	6577,08
590,932	6546,08
591,19	6499,88
591,448	6509,88
591,707	6443,88
591,965	6444,98
592,223	6416,68
592,482	6426,58
592,74	6362,18
592,998	6321,38
593,257	6355,98
593,515	6305,28
593,773	6306,78
594,031	6249,48
594,29	6236,98
594,548	6227,88
594,806	6217,28
595,064	6206,78
595,323	6152,88
595,581	6144,78
595,839	6170,68
596,097	6168,78
596,355	6104,48
596,613	6097,48
596,872	6051,28
597,13	6070,48
597,388	6033,18
597,646	6017,88
597,904	5977,98
598,162	5986,58
598,42	5973,18
598,679	5915,68
598,937	5935,68
599,195	5906,38
599,453	5911,28
599,711	5859,18
599,969	5870,88
600,227	5829,78
600,485	5811,08
600,743	5792,38
601,001	5760,58
601,259	5727,58
601,517	5726,28
601,775	5705,78
602,033	5678,38
602,291	5681,78
602,549	5609,48
602,807	5618,48
603,065	5581,68
603,323	5588,38
603,581	5563,88
603,839	5582,38
604,097	5535,88
604,355	5531,18
604,613	5518,38
604,871	5490,48
605,128	5506,08
605,386	5452,88
605,644	5451,68
605,902	5411,68
606,16	5414,28
606,418	5408,28
606,676	5360,38
606,933	5358,28
607,191	5354,78
607,449	5316,48
607,707	5303,78
607,965	5265,88
608,223	5255,18
608,48	5205,38
608,738	5213,28
608,996	5215,48
609,254	5155,98
609,511	5166,68
609,769	5164,68
610,027	5141,28
610,285	5068,98
610,542	5090,18
610,8	5079,78
611,058	5065,58
611,315	5058,88
611,573	5037,98
611,831	5027,98
612,088	5001,68
612,346	4976,28
612,604	4978,58
612,861	4937,78
613,119	4930,78
613,376	4924,98
613,634	4908,38
613,892	4888,88
614,149	4863,68
614,407	4870,58
614,664	4808,78
614,922	4840,38
615,18	4806,68
615,437	4782,78
615,695	4757,18
615,952	4755,58
616,21	4748,78
616,467	4738,38
616,725	4738,18
616,982	4715,68
617,24	4710,18
617,497	4685,58
617,755	4717,18
618,012	4638,08
618,27	4623,58
618,527	4594,98
618,784	4599,48
619,042	4552,78
619,299	4539,38
619,557	4524,38
619,814	4515,68
620,071	4498,08
620,329	4470,68
620,586	4442,28
620,844	4452,88
621,101	4449,58
621,358	4412,58
621,616	4421,28
621,873	4410,48
622,13	4359,88
622,388	4325,58
622,645	4319,78
622,902	4311,48
623,159	4279,98
623,417	4285,88
623,674	4217,38
623,931	4237,48
624,188	4208,08
624,446	4199,68
624,703	4195,88
624,96	4189,58
625,217	4124,18
625,475	4131,08
625,732	4096,28
625,989	4085,18
626,246	4036,48
626,503	4033,38
626,761	4044,78
627,018	3997,78
627,275	4013,98
627,532	3969,58
627,789	3953,18
628,046	3937,68
628,303	3922,08
628,56	3899,08
628,818	3859,48
629,075	3846,78
629,332	3820,68
629,589	3824,68
629,846	3811,38
630,103	3766,58
630,36	3774,08
630,617	3732,38
630,874	3724,98
631,131	3719,28
631,388	3693,98
631,645	3667,98
631,902	3674,78
632,159	3624,38
632,416	3601,08
632,673	3604,98
632,93	3582,58
633,187	3556,38
633,444	3526,18
633,701	3513,68
633,958	3506,18
634,215	3458,08
634,471	3448,88
634,728	3424,98
634,985	3418,28
635,242	3405,38
635,499	3399,08
635,756	3365,48
636,013	3348,98
636,27	3314,78
636,526	3324,98
636,783	3303,78
637,04	3270,48
637,297	3259,98
637,554	3238,88
637,81	3220,78
638,067	3175,08
638,324	3185,38
638,581	3145,78
638,838	3128,98
639,094	3113,18
639,351	3076,08
639,608	3093,98
639,864	3068,58
640,121	3039,68
640,378	3026,38
640,635	3013,08
640,891	2988,18
641,148	2972,38
641,405	2957,78
641,661	2941,08
641,918	2914,28
642,175	2900,18
642,431	2881,18
642,688	2881,68
642,944	2862,28
643,201	2842,48
643,458	2828,58
643,714	2821,28
643,971	2780,48
644,227	2748,48
644,484	2764,88
644,741	2734,88
644,997	2735,38
645,254	2692,68
645,51	2679,58
645,767	2661,98
646,023	2658,28
646,28	2636,28
646,536	2631,18
646,793	2610,08
647,049	2598,08
647,306	2567,38
647,562	2568,48
647,819	2536,88
648,075	2532,98
648,331	2495,08
648,588	2488,88
648,844	2487,98
649,101	2473,08
649,357	2450,08
649,613	2440,88
649,87	2436,38
650,126	2422,68
650,383	2391,28
650,639	2383,08
650,895	2363,38
651,152	2362,38
651,408	2322,88
651,664	2320,68
651,921	2307,38
652,177	2298,48
652,433	2288,38
652,689	2264,78
652,946	2225,38
653,202	2228,38
653,458	2228,08
653,715	2205,68
653,971	2187,78
654,227	2185,28
654,483	2172,48
654,739	2159,78
654,996	2145,28
655,252	2137,08
655,508	2122,68
655,764	2126,98
656,02	2100,38
656,277	2067,28
656,533	2092,68
656,789	2065,48
657,045	2034,28
657,301	2033,88
657,557	2026,48
657,813	2006,58
658,07	2003,08
658,326	1991,98
658,582	1971,08
658,838	1969,88
659,094	1947,88
659,35	1938,78
659,606	1934,08
659,862	1921,08
660,118	1903,98
660,374	1898,88
660,63	1880,08
660,886	1883,18
661,142	1869,48
661,398	1856,28
661,654	1836,18
661,91	1844,08
662,166	1850,48
662,422	1814,88
662,678	1805,98
662,934	1796,28
663,19	1795,48
663,446	1789,38
663,702	1784,38
663,957	1753,18
664,213	1760,08
664,469	1747,88
664,725	1748,98
664,981	1727,28
665,237	1718,38
665,493	1717,08
665,749	1695,68
666,004	1694,28
666,26	1678,68
666,516	1675,28
666,772	1672,28
667,028	1673,28
667,283	1650,48
667,539	1655,38
667,795	1648,68
668,051	1623,38
668,307	1622,18
668,562	1624,18
668,818	1609,98
669,074	1594,88
669,329	1589,48
669,585	1600,08
669,841	1572,78
670,097	1564,28
670,352	1568,08
670,608	1549,88
670,864	1552,38
671,119	1529,68
671,375	1539,78
671,631	1532,88
671,886	1530,98
672,142	1530,58
672,397	1518,98
672,653	1498,38
672,909	1513,08
673,164	1497,08
673,42	1490,88
673,675	1487,88
673,931	1474,98
674,186	1446,68
674,442	1458,18
674,698	1460,38
674,953	1451,98
675,209	1441,08
675,464	1435,98
675,72	1432,28
675,975	1418,98
676,231	1422,28
676,486	1406,08
676,742	1408,98
676,997	1399,08
677,252	1398,38
677,508	1397,48
677,763	1393,78
678,019	1383,18
678,274	1372,18
678,53	1371,18
678,785	1361,38
679,04	1363,88
679,296	1349,38
679,551	1348,18
679,806	1346,18
680,062	1346,18
680,317	1314,78
680,572	1318,48
680,828	1321,98
681,083	1315,98
681,338	1311,08
681,594	1296,58
681,849	1297,38
682,104	1294,98
682,36	1295,28
682,615	1287,48
682,87	1283,18
683,125	1281,88
683,381	1285,28
683,636	1264,38
683,891	1260,68
684,146	1251,68
684,401	1250,98
684,657	1251,98
684,912	1238,88
685,167	1238,18
685,422	1231,38
685,677	1222,58
685,932	1220,48
686,188	1222,88
686,443	1203,38
686,698	1208,58
686,953	1206,98
687,208	1199,08
687,463	1207,78
687,718	1190,98
687,973	1194,88
688,228	1177,68
688,483	1174,78
688,739	1179,68
688,994	1166,88
689,249	1160,08
689,504	1160,18
689,759	1156,18
690,014	1148,88
690,269	1139,08
690,524	1134,48
690,779	1136,78
691,034	1122,18
691,289	1123,28
691,544	1114,88
691,798	1118,78
692,053	1112,58
692,308	1109,18
692,563	1095,08
692,818	1098,18
693,073	1087,88
693,328	1080,38
693,583	1077,08
693,838	1072,78
694,093	1061,18
694,347	1052,68
694,602	1056,58
694,857	1043,48
695,112	1052,08
695,367	1043,48
695,622	1040,68
695,876	1028,48
696,131	1017,48
696,386	1021,38
696,641	1009,78
696,896	1008,48
697,15	1001,88
697,405	997,38
697,66	999,18
697,915	973,78
698,169	979,98
698,424	975,28
698,679	965,78
698,933	958,68
699,188	957,48
699,443	942,38
699,698	944,38
699,952	939,88
700,207	941,18
700,461	930,68
700,716	927,98
700,971	918,38
701,225	919,48
701,48	908,38
701,735	898,08
701,989	892,88
702,244	889,88
702,498	886,58
702,753	884,78
703,007	878,78
703,262	867,38
703,517	865,88
703,771	872,98
704,026	855,68
704,28	845,38
704,535	850,08
704,789	830,98
705,044	831,98
705,298	828,78
705,553	831,68
705,807	820,28
706,062	812,98
706,316	812,38
706,57	798,68
706,825	795,08
707,079	790,88
707,334	782,98
707,588	778,08
707,842	773,48
708,097	760,08
708,351	759,38
708,606	760,08
708,86	748,18
709,114	747,08
709,369	745,28
709,623	746,78
709,877	737,68
710,132	731,88
710,386	723,08
710,64	721,58
710,895	722,08
711,149	717,58
711,403	697,98
711,657	698,68
711,912	692,48
712,166	694,78
712,42	683,48
712,674	673,88
712,928	669,18
713,183	670,18
713,437	661,88
713,691	659,38
713,945	653,58
714,199	641,18
714,454	643,88
714,708	641,08
714,962	631,68
715,216	628,08
715,47	623,68
715,724	625,48
715,978	613,08
716,233	611,58
716,487	604,98
716,741	604,58
716,995	598,38
717,249	583,98
717,503	583,18
717,757	575,58
718,011	583,28
718,265	580,98
718,519	569,48
718,773	562,18
719,027	560,48
719,281	553,38
719,535	554,38
719,789	545,88
720,043	545,88
720,297	536,28
720,551	532,88
720,805	530,68
721,059	525,08
721,313	515,58
721,567	517,38
721,821	518,28
722,074	496,38
722,328	501,98
722,582	500,08
722,836	496,38
723,09	481,78
723,344	486,18
723,598	480,08
723,851	473,68
724,105	478,28
724,359	465,08
724,613	469,38
724,867	464,68
725,121	460,38
725,374	453,98
725,628	445,88
725,882	442,98
726,136	456,38
726,389	442,28
726,643	434,48
726,897	432,78
727,151	429,28
727,404	419,08
727,658	421,68
727,912	422,58
728,165	415,98
728,419	413,48
728,673	401,38
728,926	401,88
729,18	404,48
729,434	396,68
729,687	391,68
729,941	392,48
730,195	386,88
730,448	379,18
730,702	376,58
730,955	381,88
731,209	378,48
731,462	375,08
731,716	367,38
731,97	360,68
732,223	365,48
732,477	368,18
732,73	360,78
732,984	349,18
733,237	352,58
733,491	349,38
733,744	339,28
733,998	341,98
734,251	335,88
734,505	336,08
734,758	326,88
735,012	325,48
735,265	328,18
735,518	325,48
735,772	325,78
736,025	318,78
736,279	306,18
736,532	308,78
736,785	308,98
737,039	308,28
737,292	305,98
737,546	299,48
737,799	297,28
738,052	297,78
738,306	294,18
738,559	286,58
738,812	279,38
739,066	288,78
739,319	279,08
739,572	278,38
739,825	277,98
740,079	276,48
740,332	274,48
740,585	266,08
740,838	266,78
741,092	263,08
741,345	256,18
741,598	256,68
741,851	257,18
742,104	260,98
742,358	252,18
742,611	249,88
742,864	251,38
743,117	240,18
743,37	245,08
743,623	238,58
743,877	239,28
744,13	238,98
744,383	234,88
744,636	227,88
744,889	235,68
745,142	235,88
745,395	227,88
745,648	219,48
745,901	221,68
746,154	223,08
746,408	220,08
746,661	212,88
746,914	212,58
747,167	208,08
747,42	214,58
747,673	207,48
747,926	209,38
748,179	204,98
748,432	200,08
748,685	206,68
748,938	209,68
749,19	198,28
749,443	195,88
749,696	196,58
749,949	200,58
750,202	190,48
750,455	187,58
750,708	194,98
750,961	177,08
751,214	207,88
751,467	181,08
751,719	175,68
751,972	172,28
752,225	183,68
752,478	174,78
752,731	173,18
752,984	180,18
753,236	178,28
753,489	170,98
753,742	164,18
753,995	164,58
754,248	171,78
754,5	164,08
754,753	157,98
755,006	158,78
755,259	149,08
755,511	159,88
755,764	145,28
756,017	146,88
756,269	146,58
756,522	144,38
756,775	151,08
757,027	143,68
757,28	138,08
757,533	143,68
757,785	140,08
758,038	138,48
758,291	128,78
758,543	130,58
758,796	136,28
759,049	137,58
759,301	132,08
759,554	132,58
759,806	134,38
760,059	130,28
760,311	137,08
760,564	125,78
760,817	122,68
761,069	123,38
761,322	125,48
761,574	115,28
761,827	121,68
762,079	118,68
762,332	116,48
762,584	118,58
762,837	117,08
763,089	116,78
763,341	119,48
763,594	111,68
763,846	110,68
764,099	113,58
764,351	115,18
764,604	112,68
764,856	108,48
765,108	100,68
765,361	103,68
765,613	108,58
765,865	102,68
766,118	103,98
766,37	104,68
766,623	95,98
766,875	95,28
767,127	97,98
767,379	95,68
767,632	96,48
767,884	93,48
768,136	93,58
768,389	93,88
768,641	93,08
768,893	95,48
769,145	95,08
769,398	95,28
769,65	96,58
769,902	85,38
770,154	87,78
770,406	85,98
770,659	87,58
770,911	84,78
771,163	91,28
771,415	84,48
771,667	77,48
771,919	79,48
772,172	78,38
772,424	79,58
772,676	85,08
772,928	82,68
773,18	75,78
773,432	80,88
773,684	75,48
773,936	78,68
774,188	71,78
774,44	71,48
774,693	77,18
774,945	74,68
775,197	69,88
775,449	73,58
775,701	65,68
775,953	67,38
776,205	67,58
776,457	67,78
776,709	66,38
776,961	66,68
777,213	74,08
777,464	70,58
777,716	61,08
777,968	62,78
778,22	50,78
778,472	57,88
778,724	62,28
778,976	58,88
779,228	62,18
779,48	58,08
779,732	65,18
779,984	59,58
780,235	64,98
780,487	60,88
780,739	59,58
780,991	51,28
781,243	51,58
781,494	54,48
781,746	55,28
781,998	49,28
782,25	50,68
782,502	54,58
782,753	58,18
783,005	55,48
783,257	47,28
783,509	51,38
783,76	45,38
784,012	53,98
784,264	51,28
784,515	52,78
784,767	53,48
785,019	48,68
785,271	47,98
785,522	48,28
785,774	43,98
786,026	42,08
786,277	47,38
786,529	44,78
786,78	47,68
787,032	48,18
787,284	42,38
787,535	45,08
787,787	44,08
788,038	40,78
788,29	41,58
788,541	43,98
788,793	37,48
789,045	40,28
789,296	44,68
789,548	38,08
789,799	41,38
790,051	39,48
790,302	38,48
790,554	39,58
790,805	38,98
791,057	47,28
791,308	40,48
791,559	36,98
791,811	34,08
792,062	41,48
792,314	36,98
792,565	36,88
792,817	39,98
793,068	36,68
793,319	30,68
793,571	35,08
793,822	33,18
794,073	35,68
794,325	31,48
794,576	34,98
794,827	32,78
795,079	35,28
795,33	31,78
795,581	34,38
795,833	28,88
796,084	31,18
796,335	30,38
796,587	30,98
796,838	33,68
797,089	31,48
797,34	30,48
797,592	30,38
797,843	25,98
798,094	28,48
798,345	26,58
798,596	30,98
798,848	32,88
799,099	27,38
799,35	23,98
799,601	32,68
799,852	27,98
800,103	31,28
800,355	32,78
800,606	49,38
800,857	33,68
801,108	28,38
801,359	28,98
801,61	23,68
801,861	18,78
802,112	21,08
802,363	21,88
802,614	24,98
802,865	24,98
803,116	23,58
803,367	21,98
803,618	23,98
803,869	23,28
804,12	22,98
804,371	26,58
804,622	21,08
804,873	22,28
805,124	22,38
805,375	19,98
805,626	20,58
805,877	24,68
806,128	23,88
806,379	18,68
806,63	24,78
806,881	22,08
807,132	21,18
807,383	17,38
807,634	17,18
807,884	19,38
808,135	26,18
808,386	21,28
808,637	21,48
808,888	14,88
809,139	15,58
809,389	19,98
809,64	23,78
809,891	23,08
810,142	19,68
810,393	16,18
810,643	17,78
810,894	18,28
811,145	15,18
811,396	14,28
811,646	17,78
811,897	17,28
812,148	21,88
812,398	21,88
812,649	22,78
812,9	20,58
813,151	20,48
813,401	16,48
813,652	37,58
813,902	24,48
814,153	15,68
814,404	19,88
814,654	19,88
814,905	15,88
815,156	17,88
815,406	11,48
815,657	21,48
815,907	16,88
816,158	11,78
816,408	13,18
816,659	13,48
816,91	13,28
817,16	16,28
817,411	13,38
817,661	17,38
817,912	15,58
818,162	8,38
818,413	18,88
818,663	14,48
818,914	9,78
819,164	11,68
819,414	5,48
819,665	19,08
819,915	11,88
820,166	15,28
820,416	8,18
820,667	19,68
820,917	15,18
821,167	13,88
821,418	11,78
821,668	14,48
821,918	15,78
822,169	8,88
822,419	9,18
822,67	9,78
822,92	8,38
823,17	9,58
823,42	14,48
823,671	15,88
823,921	13,28
824,171	6,18
824,422	6,68
824,672	13,98
824,922	16,78
825,172	10,28
825,423	8,48
825,673	9,38
825,923	12,78
826,173	16,98
826,423	7,28
826,674	8,68
826,924	12,48
827,174	9,78
827,424	11,98
827,674	13,98
827,924	14,68
828,175	16,28
828,425	8,98
828,675	8,78
828,925	11,88
829,175	17,78
829,425	10,28
829,675	12,08
829,925	10,68
830,175	10,48
830,425	3,68
830,675	12,98
830,925	13,08
831,175	15,08
831,425	6,08
831,676	4,58
831,926	5,18
832,175	1,48
832,425	11,48
832,675	11,88
832,925	17,18
833,175	7,08
833,425	7,88
833,675	7,88
833,925	10,08
834,175	12,98
834,425	10,28
834,675	13,08
834,925	9,28
835,175	10,98
835,425	6,48
835,674	8,48
835,924	4,38
836,174	0,48
836,424	6,88
836,674	10,48
836,924	10,38
837,173	8,78
837,423	10,48
837,673	5,58
837,923	3,58
838,173	-0,12
838,422	12,48
838,672	14,48
838,922	9,78
839,172	9,08
839,421	10,58
839,671	5,08
839,921	2,68
840,17	5,88
840,42	9,08
840,67	10,18
840,919	10,28
841,169	12,28
841,419	6,88
841,668	11,58
841,918	7,58
842,168	4,98
842,417	4,18
842,667	12,48
842,916	9,38
843,166	11,98
843,416	6,68
843,665	9,28
843,915	10,58
844,164	12,88
844,414	11,58
844,663	9,48
844,913	12,28
845,162	11,28
845,412	6,58
845,662	2,08
845,911	6,88
846,16	-0,02
846,41	4,68
846,659	3,18
846,909	7,18
847,158	7,38
847,408	-0,12
847,657	8,18
847,907	3,78
848,156	5,78
848,405	8,78
848,655	10,28
848,904	5,68
849,154	3,88
849,403	6,18
849,652	9,48
849,902	5,68
850,151	1,98
850,4	2,58
850,65	7,08
850,899	6,78
851,148	9,78
851,398	5,88
851,647	19,28
851,896	10,28
852,145	6,98
852,395	10,58
852,644	11,68
852,893	9,78
853,142	10,88
853,392	0,38
853,641	9,28
853,89	6,58
854,139	7,78
854,388	3,38
854,637	13,08
854,887	5,68
855,136	3,28
855,385	7,98
855,634	7,88
855,883	13,28
856,132	6,78
856,381	0,68
856,631	5,28
856,88	2,48
857,129	10,38
857,378	5,58
857,627	4,98
857,876	4,18
858,125	6,48
858,374	9,28
858,623	7,18
858,872	11,48
859,121	5,98
859,37	7,58
859,619	8,38
859,868	4,08
860,117	6,28
860,366	5,98
860,615	9,38
860,864	4,58
861,113	7,08
861,362	7,28
861,611	-0,22
861,86	4,18
862,108	5,08
862,357	6,48
862,606	2,08
862,855	7,48
863,104	1,78
863,353	6,38
863,602	8,88
863,851	38,88
864,099	8,18
864,348	5,48
864,597	5,68
864,846	4,38
865,095	8,88
865,343	9,88
865,592	7,28
865,841	6,88
866,09	7,08
866,338	3,48
866,587	6,08
866,836	9,48
867,085	4,08
867,333	6,08
867,582	-0,22
867,831	5,58
868,079	-0,22
868,328	7,28
868,577	2,48
868,825	8,58
869,074	9,58
869,323	2,58
869,571	3,58
869,82	0,58
870,068	5,68
870,317	4,78
870,566	3,68
870,814	2,18
871,063	3,98
871,311	9,98
871,56	6,88
871,808	4,08
872,057	12,78
872,306	5,58
872,554	4,38
872,803	-0,12
873,051	7,18
873,3	5,48
873,548	3,18
873,797	6,28
874,045	7,78
874,293	6,08
874,542	7,08
874,79	5,98
875,039	-0,32
875,287	2,08
875,536	-0,22
875,784	0,48
876,032	6,28
876,281	0,38
876,529	9,68
876,777	4,28
877,026	2,48
877,274	10,18
877,523	9,48
877,771	11,38
878,019	-2,02
878,267	8,68
878,516	4,78
878,764	6,48
879,012	8,98
879,261	3,98
879,509	8,18
879,757	5,08
880,005	12,88
880,254	4,88
880,502	7,28
880,75	0,88
880,998	4,48
881,246	9,88
881,495	0,88
881,743	6,98
881,991	6,38
882,239	4,48
882,487	8,28
882,735	5,38
882,984	4,18
883,232	9,58
883,48	7,08
883,728	10,08
883,976	5,78
884,224	-3,72
884,472	13,48
884,72	3,48
884,968	12,08
885,216	11,58
885,464	3,18
885,712	6,68
885,96	9,98
886,208	7,98
886,457	3,38
886,704	10,08
886,952	6,08
887,2	3,58
887,448	4,08
887,696	5,18
887,944	10,68
888,192	4,98
888,44	3,28
888,688	3,88
888,936	11,58
889,184	10,88
889,432	6,98
889,68	8,48
889,928	5,88
890,175	6,48
890,423	8,48
890,671	4,88
890,919	10,58
891,167	11,18
891,415	5,68
891,663	5,28
891,91	4,58
892,158	5,68
892,406	4,98
892,654	-1,72
892,901	4,28
893,149	3,88
893,397	3,08
893,645	2,78
893,892	9,08
894,14	11,98
894,388	11,08
894,636	4,58
894,883	2,38
895,131	9,08
895,379	4,78
895,626	5,48
895,874	6,58
896,122	1,08
896,369	6,58
896,617	3,08
896,864	6,28
897,112	5,58
897,36	3,08
897,607	5,38
897,855	2,78
898,102	5,48
898,35	5,28
898,598	4,08
898,845	8,08
899,093	5,48
899,34	3,28
899,588	4,68
899,835	4,08
900,083	3,98
900,33	7,48
900,578	7,78
900,825	4,78
901,073	2,28
901,32	6,58
901,568	7,08
901,815	6,48
902,062	8,08
902,31	5,38
902,557	3,18
902,805	30,18
903,052	4,08
903,299	5,08
903,547	8,28
903,794	11,48
904,042	-0,32
904,289	2,78
904,536	6,78
904,784	4,88
905,031	2,88
905,278	11,88
905,525	5,88
905,773	0,58
906,02	3,48
906,267	7,18
906,515	9,38
906,762	7,48
907,009	6,08
907,256	4,78
907,504	4,88
907,751	1,48
907,998	3,68
908,245	7,08
908,492	4,38
908,74	6,58
908,987	12,18
909,234	6,38
909,481	2,38
909,728	3,98
909,975	3,68
910,222	4,48
910,47	0,68
910,717	4,48
910,964	5,18
911,211	1,58
911,458	4,48
911,705	7,58
911,952	4,98
912,199	4,58
912,446	4,18
912,693	6,98
912,94	2,68
913,187	4,18
913,434	-0,42
913,681	2,58
913,928	-3,62
914,175	1,48
914,422	4,68
914,669	8,28
914,916	7,28
915,163	9,88
915,41	0,78
915,657	-1,32
915,904	5,08
916,151	7,98
916,398	9,78
916,644	5,68
916,891	3,78
917,138	0,08
917,385	8,48
917,632	3,28
917,879	0,18
918,126	7,48
918,372	0,68
918,619	3,48
918,866	3,08
919,113	7,58
919,36	4,28
919,606	11,58
919,853	4,28
920,1	0,78
920,347	-1,42
920,593	2,28
920,84	5,98
921,087	3,58
921,334	0,68
921,58	-2,62
921,827	2,78
922,074	0,48
922,32	5,58
922,567	4,68
922,814	2,48
923,06	8,08
923,307	6,08
923,554	7,88
923,8	2,38
924,047	2,28
924,293	0,28
924,54	3,98
924,787	3,88
925,033	5,18
925,28	-2,52
925,526	13,68
925,773	9,68
926,019	5,48
926,266	3,18
926,512	1,48
926,759	3,78
927,005	7,08
927,252	7,18
927,498	7,98
927,745	-0,72
927,991	-0,62
928,238	-0,72
928,484	11,18
928,731	8,88
928,977	5,28
929,223	7,08
929,47	2,58
929,716	1,78
929,963	5,88
930,209	4,18
930,455	6,48
930,702	3,48
930,948	2,68
931,194	6,68
931,441	6,18
931,687	-1,22
931,933	5,48
932,18	3,48
932,426	5,58
932,672	5,88
932,919	6,78
933,165	2,38
933,411	11,18
933,657	7,08
933,904	0,98
934,15	5,18
934,396	1,48
934,642	3,28
934,889	2,48
935,135	3,68
935,381	10,58
935,627	0,38
935,873	2,88
936,119	6,58
936,366	5,78
936,612	8,78
936,858	4,98
937,104	5,38
937,35	6,88
937,596	2,78
937,842	0,28
938,088	3,18
938,334	7,38
938,58	6,98
938,827	5,48
939,073	5,08
939,319	-2,22
939,565	0,28
939,811	7,98
940,057	-0,42
940,303	6,88
940,549	3,38
940,795	5,88
941,041	4,78
941,287	5,58
941,533	6,28
941,778	3,28
942,024	-0,92
942,27	5,58
942,516	2,18
942,762	7,78
943,008	-0,72
943,254	6,38
943,5	2,38
943,746	7,98
943,992	3,58
944,237	8,78
944,483	2,28
944,729	10,08
944,975	7,28
945,221	8,58
945,467	8,68
945,712	7,58
945,958	3,48
946,204	2,48
946,45	2,98
946,695	5,68
946,941	2,88
947,187	6,48
947,433	0,78
947,678	4,28
947,924	1,68
948,17	2,08
948,415	4,48
948,661	4,78
948,907	5,58
949,153	1,58
949,398	2,08
949,644	4,28
949,889	6,68
950,135	3,48
950,381	-2,52
950,626	4,48
950,872	4,58
951,118	7,78
951,363	-1,72
951,609	6,98
951,854	1,98
952,1	-4,92
952,345	1,78
952,591	3,68
952,836	4,98
953,082	-1,92
953,327	3,38
953,573	6,18
953,818	4,98
954,064	0,68
954,309	3,98
954,555	3,98
954,8	-1,32
955,046	-5,72
955,291	0,18
955,537	0,28
955,782	-2,32
956,027	3,98
956,273	6,98
956,518	4,98
956,764	8,48
957,009	5,58
957,254	2,48
957,5	5,78
957,745	6,38
957,99	0,88
958,236	-4,72
958,481	4,08
958,726	9,28
958,972	-0,32
959,217	-0,72
959,462	8,48
959,707	7,38
959,953	6,38
960,198	-1,52
960,443	5,48
960,688	-0,52
960,934	13,68
961,179	2,18
961,424	0,08
961,669	1,18
961,914	-3,52
962,16	-2,22
962,405	7,78
962,65	6,08
962,895	6,58
963,14	3,28
963,385	7,08
963,63	6,38
963,876	0,18
964,121	1,98
964,366	1,08
964,611	6,58
964,856	-0,22
965,101	-1,32
965,346	1,08
965,591	-0,62
965,836	0,88
966,081	-2,72
966,326	1,98
966,571	4,48
966,816	2,08
967,061	1,38
967,306	6,68
967,551	3,68
967,796	0,98
968,041	2,48
968,286	1,78
968,531	2,48
968,776	-1,62
969,021	-5,42
969,266	11,28
969,511	1,58
969,755	-4,22
970	0,48
970,245	4,18
970,49	8,08
970,735	7,98
970,98	-1,82
971,225	-3,32
971,469	1,68
971,714	-2,22
971,959	1,28
972,204	-0,12
972,449	-0,22
972,693	3,28
972,938	1,08
973,183	9,68
973,428	-1,92
973,672	1,88
973,917	5,38
974,162	0,38
974,407	7,28
974,651	4,58
974,896	2,18
975,141	10,68
975,385	1,88
975,63	3,98
975,875	-3,32
976,119	35,58
976,364	3,98
976,608	0,18
976,853	1,68
977,098	3,98
977,342	3,08
977,587	0,98
977,831	3,28
978,076	3,98
978,321	-4,22
978,565	-0,32
978,81	-4,82
979,054	-1,62
979,299	0,58
979,543	4,18
979,788	3,68
980,032	2,98
980,277	5,48
980,521	-0,62
980,766	-0,42
981,01	3,28
981,255	-3,12
981,499	3,48
981,743	0,38
981,988	1,28
982,232	-0,82
982,477	5,18
982,721	-3,12
982,965	-0,72
983,21	-0,92
983,454	1,98
983,699	4,98
983,943	3,98
984,187	9,18
984,432	-0,02
984,676	6,18
984,92	6,78
985,165	-0,82
985,409	2,88
985,653	0,08
985,897	1,78
986,142	3,88
986,386	-1,22
986,63	3,38
986,874	-1,12
987,119	-2,82
987,363	-1,82
987,607	-1,92
987,851	3,78
988,095	8,48
988,34	-3,02
988,584	0,98
988,828	-0,12
989,072	3,08
989,316	2,08
989,56	-0,72
989,804	1,28
990,049	-2,52
990,293	-0,92
990,537	0,98
990,781	1,88
991,025	-3,72
991,269	-2,82
991,513	-0,72
991,757	2,98
992,001	-10,62
992,245	-5,42
992,489	-0,92
992,733	0,18
992,977	-4,22
993,221	-1,22
993,465	-0,02
993,709	-3,32
993,953	-3,42
994,197	-2,72
994,441	-1,52
994,685	-3,52
994,929	3,18
995,173	3,78
995,417	-0,52
995,661	3,98
995,904	-3,92
996,148	-1,02
996,392	-3,32
996,636	-5,22
996,88	-2,62
997,124	1,58
997,368	2,18
997,611	7,28
997,855	-3,82
998,099	2,08
998,343	1,58
998,587	1,08
998,83	-0,82
999,074	-2,72
999,318	1,18
999,562	-0,82
999,805	-1,52
1000,049	-6,52
1000,293	0,88
1000,537	6,18
1000,78	-0,02
1001,024	-0,62
1001,268	-0,62
1001,511	2,48
1001,755	-4,22
1001,999	2,98
1002,242	5,08
1002,486	4,98
1002,73	-1,02
1002,973	-1,22
1003,217	0,88
1003,46	1,78
1003,704	2,58
1003,948	1,18
1004,191	-2,32
1004,435	3,98
1004,678	5,08
1004,922	-1,12
1005,165	-0,92
1005,409	7,08
1005,652	4,08
1005,896	2,18
1006,139	3,08
1006,383	4,78
1006,626	-1,22
1006,87	-1,72
1007,113	-1,92
1007,357	-0,12
1007,6	6,28
1007,844	3,58
1008,087	3,68
1008,33	-3,22
1008,574	1,38
1008,817	4,18
1009,061	-5,32
1009,304	-4,12
1009,547	-1,12
1009,791	5,68
1010,034	-1,22
1010,277	3,98
1010,521	0,08
1010,764	-0,72
1011,007	0,48
1011,251	-2,82
1011,494	-5,72
1011,737	-0,02
1011,98	-0,52
1012,224	0,58
1012,467	-2,62
1012,71	-0,72
1012,953	1,28
1013,197	2,08
1013,44	-3,72
1013,683	-0,22
1013,926	-4,72
1014,169	-1,22
1014,413	-2,62
1014,656	1,28
1014,899	-6,02
1015,142	7,88
1015,385	4,88
1015,628	4,28
1015,871	4,38
1016,115	1,98
1016,358	-1,62
1016,601	-2,52
1016,844	4,18
1017,087	0,18
1017,33	1,98
1017,573	1,58
1017,816	-2,42
1018,059	9,48
1018,302	0,08
1018,545	-1,82
1018,788	-4,42
1019,031	1,78
1019,274	-1,32
1019,517	-6,22
1019,76	-0,02
1020,003	-5,42
1020,246	-5,32
1020,489	4,38
1020,732	-3,32
1020,975	-1,32
1021,218	2,08
1021,461	-2,32
1021,703	-2,52
1021,946	0,98
1022,189	-0,12
1022,432	0,78
1022,675	9,28
1022,918	3,38
1023,161	-2,42
1023,403	2,08
1023,646	-0,02
1023,889	-2,02
1024,132	5,58
1024,375	5,98
1024,617	0,38
1024,86	-0,82
1025,103	-2,92
1025,346	-1,12
1025,588	-0,52
1025,831	-5,62
1026,074	-3,12
1026,317	5,18
1026,559	3,38
1026,802	-0,72
1027,045	-3,52
1027,287	0,68
1027,53	1,58
1027,773	-0,12
1028,015	2,28
1028,258	-0,12
1028,501	-3,12
1028,743	-0,92
1028,986	-5,32
1029,228	4,38
1029,471	-1,52
1029,714	-0,62
1029,956	-2,92
1030,199	2,08
1030,441	1,58
1030,684	3,58
1030,926	-3,32
1031,169	-2,72
1031,411	2,48
1031,654	3,48
1031,896	-0,82
1032,139	1,68
1032,381	3,08
1032,624	-0,42
1032,866	2,08
1033,109	6,78
1033,351	0,58
1033,594	0,88
1033,836	-2,62
1034,079	-4,32
1034,321	-0,12
1034,563	0,38
1034,806	-0,12
1035,048	-0,42
1035,29	-2,82
1035,533	-2,52
1035,775	-0,82
1036,018	8,38
1036,26	-4,42
1036,502	9,08
1036,744	0,38
1036,987	-1,12
1037,229	-2,72
1037,471	-3,12
1037,714	9,58
1037,956	2,08
1038,198	-0,72
1038,44	1,68
1038,683	8,78
1038,925	4,68
1039,167	1,98
1039,409	-0,32
1039,651	0,58
1039,894	1,18
1040,136	-0,82
1040,378	5,08
1040,62	7,38
1040,862	6,18
1041,104	7,38
1041,347	2,08
1041,589	-0,62
1041,831	2,08
1042,073	-0,32
1042,315	1,48
1042,557	-3,52
1042,799	9,58
1043,041	5,48
1043,283	-0,72
1043,525	-2,22
1043,767	4,78
1044,009	2,48
1044,251	-4,72
1044,493	-2,62
1044,735	-2,52
1044,977	-0,72
1045,219	1,28
1045,461	-3,82
1045,703	-0,02
1045,945	2,38
1046,187	2,18
1046,429	0,88
1046,671	-7,02
1046,913	2,28
1047,155	0,48
1047,397	6,58
1047,639	2,98
1047,881	4,38
1048,122	-1,42
1048,364	2,28
1048,606	-0,52
1048,848	-2,72
1049,09	1,08
1049,332	-0,72
1049,573	-5,02
1049,815	0,68
1050,057	-0,92
1050,299	-0,82
1050,541	1,88
1050,782	2,18
1051,024	-3,42
1051,266	1,38
1051,508	4,98
1051,749	2,78
1051,991	-4,22
1052,233	9,28
1052,474	-4,52
1052,716	-3,32
1052,958	1,18
1053,199	4,78
1053,441	1,28
1053,683	-6,42
1053,924	2,58
1054,166	0,38
1054,408	-2,62
1054,649	-0,72
1054,891	2,78
1055,132	3,08
1055,374	0,58
1055,616	-1,32
1055,857	-2,02
1056,099	0,48
1056,34	2,88
1056,582	-1,52
1056,823	4,38
1057,065	3,88
1057,306	1,08
1057,548	1,68
1057,789	1,58
1058,031	0,88
1058,272	-1,12
1058,514	0,98
1058,755	0,78
1058,997	2,48
1059,238	4,98
1059,479	0,18
1059,721	3,18
1059,962	2,68
1060,204	-0,82
1060,445	-4,42
1060,686	-2,82
1060,928	6,08
1061,169	2,68
1061,41	-1,12
1061,652	6,98
1061,893	1,38
1062,134	5,88
1062,376	-2,12
1062,617	-0,62
1062,858	1,48
1063,1	-0,82
1063,341	-4,52
1063,582	5,38
1063,823	-0,32
1064,065	-8,42
1064,306	-3,32
1064,547	6,78
1064,788	1,38
1065,029	-1,12
1065,271	-2,32
1065,512	-3,02
1065,753	4,18
1065,994	5,08
1066,235	-0,02
1066,476	3,68
1066,718	-2,12
1066,959	4,68
1067,2	-4,12
1067,441	10,68
1067,682	2,98
1067,923	6,98
1068,164	0,18
1068,405	-0,12
1068,646	-2,62
1068,887	4,38
1069,128	-2,62
1069,369	4,98
1069,61	0,18
1069,851	1,88
1070,092	3,98
1070,333	-1,42
1070,574	-1,22
1070,815	1,08
1071,056	-0,12
1071,297	0,38
1071,538	1,78
1071,779	4,48
1072,02	1,18
1072,261	10,68
1072,502	2,88
1072,743	3,78
1072,984	2,48
1073,225	3,68
1073,466	2,88
1073,706	2,38
1073,947	1,68
1074,188	4,48
1074,429	6,88
1074,67	7,48
1074,911	-4,02
1075,151	-1,22
1075,392	-5,02
1075,633	2,68
1075,874	1,78
1076,114	1,38
1076,355	4,18
1076,596	5,48
1076,837	2,38
1077,077	0,48
1077,318	-0,32
1077,559	5,08
1077,8	4,48
1078,04	4,68
1078,281	-1,52
1078,522	0,28
1078,762	-4,82
1079,003	4,58
1079,244	3,28
1079,484	3,78
1079,725	5,48
1079,965	3,48
1080,206	-0,62
1080,447	3,18
1080,687	-3,42
1080,928	4,68
1081,168	1,68
1081,409	4,08
1081,649	-1,82
1081,89	1,78
1082,131	1,78
1082,371	1,68
1082,612	5,08
1082,852	4,28
1083,093	5,28
1083,333	4,78
1083,573	1,48
1083,814	6,48
1084,054	4,98
1084,295	15,58
1084,535	5,78
1084,776	-0,92
1085,016	2,98
1085,257	3,58
1085,497	7,68
1085,737	13,78
1085,978	2,88
1086,218	0,18
1086,458	-1,32
1086,699	1,98
1086,939	4,48
1087,179	4,38
1087,42	4,28
1087,66	3,48
1087,9	-0,22
1088,141	3,08
1088,381	3,98
1088,621	1,18
1088,861	-0,42
1089,102	8,58
1089,342	3,38
1089,582	0,58
1089,822	2,68
1090,063	0,68
1090,303	5,88
1090,543	2,78
1090,783	0,18
1091,023	1,18
1091,263	1,78
1091,504	-4,52
1091,744	0,98
1091,984	7,38
1092,224	4,58
1092,464	1,08
1092,704	-0,92
1092,944	5,38
1093,184	3,28
1093,425	8,18
1093,665	2,08
1093,905	3,08
1094,145	0,98
1094,385	7,48
1094,625	1,68
1094,865	3,68
1095,105	3,28
1095,345	-1,52
1095,585	-5,32
1095,825	1,98
1096,065	5,68
1096,305	-0,32
1096,545	8,48
1096,785	4,48
1097,025	5,88
1097,265	-2,92
1097,504	3,38
1097,744	-0,12
1097,984	1,48
1098,224	6,58
1098,464	3,58
1098,704	13,18
1098,944	4,18
1099,184	2,08
1099,423	2,08
1099,663	3,58
1099,903	-2,52
1100,143	-0,42
1100,383	0,18
1100,622	5,58
1100,862	5,08
1101,102	4,58
1101,342	0,38
1101,582	3,48
1101,821	1,78
1102,061	5,18
1102,301	3,88
1102,54	9,88
1102,78	-1,12
1103,02	-1,22
1103,26	-0,92
1103,499	0,18
1103,739	4,88
1103,979	6,68
1104,218	8,38
1104,458	4,38
1104,697	3,78
1104,937	5,68
1105,177	7,38
1105,416	-0,62
1105,656	1,18
1105,896	6,08
1106,135	-0,22
1106,375	1,98
1106,614	6,08
1106,854	4,38
1107,093	3,98
1107,333	-0,12
1107,572	2,38
1107,812	6,78
1108,051	10,38
1108,291	-0,92
1108,53	4,78
1108,77	6,78
1109,009	3,78
1109,249	2,08
1109,488	0,88
1109,728	4,48
1109,967	0,18
1110,206	1,08
1110,446	6,78
1110,685	1,38
1110,925	2,98
1111,164	5,18
1111,403	1,98
1111,643	5,28
1111,882	2,38
1112,121	-0,52
1112,361	6,18
1112,6	4,98
1112,839	4,78
1113,079	5,68
1113,318	5,28
1113,557	2,08
1113,796	7,78
1114,036	3,38
1114,275	-1,42
1114,514	11,28
1114,753	7,78
1114,993	11,08
1115,232	0,78
1115,471	3,78
1115,71	7,88
1115,949	6,38
1116,188	-0,02
1116,428	6,18
1116,667	4,28
1116,906	0,68
1117,145	8,38
1117,384	10,18
1117,623	4,78
1117,862	1,18
1118,101	2,18
1118,341	7,38
1118,58	10,58
1118,819	10,08
1119,058	-0,12
1119,297	-4,72
1119,536	5,48
1119,775	7,48
1120,014	-4,52
1120,253	-1,92
1120,492	0,28
1120,731	5,38
1120,97	2,38
1121,209	7,78
1121,448	6,58
1121,687	4,68
1121,926	4,98
1122,165	-0,32
1122,404	3,08
1122,642	4,98
1122,881	1,38
1123,12	4,48
1123,359	6,48
1123,598	5,98
1123,837	6,58
1124,076	-0,92
1124,315	2,98
1124,553	4,78
1124,792	-1,52
1125,031	8,78
1125,27	3,78
1125,509	3,58
1125,747	6,88
1125,986	5,18
1126,225	-0,22
